# E (eV)  dos(E)    pdos(E)
 -4.000  0.155E+00  0.154E+00
 -3.900  0.176E+00  0.175E+00
 -3.800  0.192E+00  0.191E+00
 -3.700  0.256E+00  0.255E+00
 -3.600  0.400E+00  0.398E+00
 -3.500  0.565E+00  0.563E+00
 -3.400  0.648E+00  0.645E+00
 -3.300  0.610E+00  0.607E+00
 -3.200  0.501E+00  0.498E+00
 -3.100  0.379E+00  0.377E+00
 -3.000  0.288E+00  0.286E+00
 -2.900  0.259E+00  0.258E+00
 -2.800  0.289E+00  0.287E+00
 -2.700  0.328E+00  0.327E+00
 -2.600  0.335E+00  0.333E+00
 -2.500  0.306E+00  0.304E+00
 -2.400  0.288E+00  0.286E+00
 -2.300  0.352E+00  0.350E+00
 -2.200  0.488E+00  0.486E+00
 -2.100  0.606E+00  0.603E+00
 -2.000  0.753E+00  0.749E+00
 -1.900  0.120E+01  0.119E+01
 -1.800  0.203E+01  0.201E+01
 -1.700  0.276E+01  0.274E+01
 -1.600  0.275E+01  0.273E+01
 -1.500  0.198E+01  0.197E+01
 -1.400  0.111E+01  0.110E+01
 -1.300  0.699E+00  0.695E+00
 -1.200  0.738E+00  0.733E+00
 -1.100  0.944E+00  0.936E+00
 -1.000  0.114E+01  0.113E+01
 -0.900  0.124E+01  0.123E+01
 -0.800  0.113E+01  0.112E+01
 -0.700  0.806E+00  0.798E+00
 -0.600  0.441E+00  0.437E+00
 -0.500  0.192E+00  0.191E+00
 -0.400  0.835E-01  0.831E-01
 -0.300  0.638E-01  0.634E-01
 -0.200  0.919E-01  0.912E-01
 -0.100  0.133E+00  0.132E+00
  0.000  0.159E+00  0.158E+00
  0.100  0.165E+00  0.164E+00
  0.200  0.147E+00  0.146E+00
  0.300  0.976E-01  0.969E-01
  0.400  0.369E-01  0.366E-01
  0.500  0.109E-01  0.108E-01
  0.600  0.487E-01  0.482E-01
  0.700  0.134E+00  0.132E+00
  0.800  0.212E+00  0.210E+00
  0.900  0.229E+00  0.227E+00
  1.000  0.174E+00  0.172E+00
  1.100  0.815E-01  0.808E-01
  1.200 -0.161E-02 -0.161E-02
  1.300 -0.488E-01 -0.484E-01
  1.400 -0.325E-01 -0.323E-01
  1.500  0.102E+00  0.101E+00
  1.600  0.386E+00  0.382E+00
  1.700  0.749E+00  0.743E+00
  1.800  0.106E+01  0.105E+01
  1.900  0.126E+01  0.126E+01
  2.000  0.139E+01  0.138E+01
  2.100  0.147E+01  0.146E+01
  2.200  0.148E+01  0.148E+01
  2.300  0.143E+01  0.142E+01
  2.400  0.139E+01  0.138E+01
  2.500  0.140E+01  0.139E+01
  2.600  0.141E+01  0.140E+01
  2.700  0.134E+01  0.133E+01
  2.800  0.120E+01  0.119E+01
  2.900  0.115E+01  0.115E+01
  3.000  0.133E+01  0.132E+01
  3.100  0.160E+01  0.159E+01
  3.200  0.167E+01  0.166E+01
  3.300  0.152E+01  0.151E+01
  3.400  0.135E+01  0.134E+01
  3.500  0.127E+01  0.125E+01
  3.600  0.117E+01  0.115E+01
  3.700  0.965E+00  0.956E+00
  3.800  0.744E+00  0.736E+00
  3.900  0.623E+00  0.616E+00
  4.000  0.642E+00  0.635E+00
  4.100  0.723E+00  0.715E+00
  4.200  0.727E+00  0.719E+00
  4.300  0.638E+00  0.630E+00
  4.400  0.623E+00  0.615E+00
  4.500  0.802E+00  0.790E+00
  4.600  0.104E+01  0.102E+01
  4.700  0.110E+01  0.109E+01
  4.800  0.981E+00  0.967E+00
  4.900  0.810E+00  0.798E+00
  5.000  0.679E+00  0.667E+00
  5.100  0.561E+00  0.550E+00
  5.200  0.452E+00  0.442E+00
  5.300  0.419E+00  0.409E+00
  5.400  0.474E+00  0.463E+00
  5.500  0.536E+00  0.523E+00
  5.600  0.571E+00  0.556E+00
  5.700  0.650E+00  0.631E+00
  5.800  0.800E+00  0.774E+00
  5.900  0.914E+00  0.883E+00
  6.000  0.860E+00  0.830E+00
  6.100  0.613E+00  0.593E+00
  6.200  0.286E+00  0.278E+00
  6.300  0.512E-01  0.528E-01
  6.400  0.415E-01  0.367E-01
  6.500  0.273E+00  0.239E+00
  6.600  0.635E+00  0.554E+00
  6.700  0.938E+00  0.812E+00
  6.800  0.104E+01  0.890E+00
  6.900  0.944E+00  0.803E+00
  7.000  0.790E+00  0.667E+00
  7.100  0.704E+00  0.590E+00
  7.200  0.708E+00  0.588E+00
  7.300  0.737E+00  0.609E+00
  7.400  0.751E+00  0.626E+00
  7.500  0.743E+00  0.630E+00
  7.600  0.703E+00  0.599E+00
  7.700  0.649E+00  0.546E+00
  7.800  0.637E+00  0.522E+00
  7.900  0.656E+00  0.529E+00
  8.000  0.626E+00  0.509E+00
  8.100  0.542E+00  0.454E+00
  8.200  0.564E+00  0.488E+00
  8.300  0.845E+00  0.734E+00
  8.400  0.129E+01  0.112E+01
  8.500  0.160E+01  0.141E+01
  8.600  0.161E+01  0.144E+01
  8.700  0.145E+01  0.132E+01
  8.800  0.130E+01  0.117E+01
  8.900  0.119E+01  0.103E+01
  9.000  0.116E+01  0.941E+00
  9.100  0.129E+01  0.998E+00
  9.200  0.157E+01  0.123E+01
  9.300  0.187E+01  0.150E+01
  9.400  0.195E+01  0.160E+01
  9.500  0.177E+01  0.146E+01
  9.600  0.153E+01  0.121E+01
  9.700  0.146E+01  0.107E+01
  9.800  0.157E+01  0.108E+01
  9.900  0.173E+01  0.116E+01
 10.000  0.191E+01  0.129E+01
 10.100  0.214E+01  0.144E+01
 10.200  0.232E+01  0.153E+01
 10.300  0.220E+01  0.141E+01
 10.400  0.168E+01  0.108E+01
 10.500  0.104E+01  0.705E+00
 10.600  0.608E+00  0.456E+00
 10.700  0.482E+00  0.391E+00
 10.800  0.616E+00  0.507E+00
 10.900  0.916E+00  0.747E+00
 11.000  0.114E+01  0.916E+00
 11.100  0.107E+01  0.848E+00
 11.200  0.864E+00  0.657E+00
 11.300  0.794E+00  0.573E+00
 11.400  0.826E+00  0.584E+00
 11.500  0.729E+00  0.522E+00
 11.600  0.532E+00  0.400E+00
 11.700  0.480E+00  0.376E+00
 11.800  0.630E+00  0.474E+00
 11.900  0.760E+00  0.536E+00
 12.000  0.690E+00  0.456E+00
 12.100  0.492E+00  0.305E+00
 12.200  0.368E+00  0.225E+00
 12.300  0.433E+00  0.274E+00
 12.400  0.637E+00  0.409E+00
 12.500  0.829E+00  0.535E+00
 12.600  0.874E+00  0.575E+00
 12.700  0.756E+00  0.511E+00
 12.800  0.564E+00  0.386E+00
 12.900  0.398E+00  0.269E+00
 13.000  0.321E+00  0.209E+00
 13.100  0.333E+00  0.211E+00
 13.200  0.396E+00  0.251E+00
 13.300  0.494E+00  0.319E+00
 13.400  0.646E+00  0.420E+00
 13.500  0.831E+00  0.518E+00
 13.600  0.962E+00  0.552E+00
 13.700  0.993E+00  0.515E+00
 13.800  0.940E+00  0.450E+00
 13.900  0.811E+00  0.376E+00
 14.000  0.613E+00  0.289E+00
 14.100  0.397E+00  0.204E+00
 14.200  0.251E+00  0.153E+00
 14.300  0.251E+00  0.175E+00
 14.400  0.392E+00  0.270E+00
 14.500  0.523E+00  0.354E+00
 14.600  0.473E+00  0.319E+00
 14.700  0.261E+00  0.177E+00
 14.800  0.737E-01  0.506E-01
 14.900  0.457E-01  0.289E-01
 15.000  0.143E+00  0.906E-01
 15.100  0.240E+00  0.154E+00
 15.200  0.266E+00  0.175E+00
 15.300  0.274E+00  0.192E+00
 15.400  0.331E+00  0.246E+00
 15.500  0.403E+00  0.305E+00
 15.600  0.404E+00  0.307E+00
 15.700  0.340E+00  0.264E+00
 15.800  0.323E+00  0.271E+00
 15.900  0.412E+00  0.370E+00
 16.000  0.503E+00  0.460E+00
 16.100  0.448E+00  0.412E+00
 16.200  0.258E+00  0.238E+00
 16.300  0.749E-01  0.697E-01
 16.400 -0.132E-01 -0.117E-01
 16.500 -0.252E-01 -0.230E-01
 16.600 -0.134E-01 -0.123E-01
 16.700 -0.434E-02 -0.399E-02
 16.800 -0.972E-03 -0.896E-03
 16.900 -0.157E-03 -0.145E-03
